SpectraSuite Data File
++++++++++++++++++++++++++++++++++++
Date: Wed Feb 14 13:36:13 GMT-05:00 2024
User: ULAVAL
Dark Spectrum Present: No
Reference Spectrum Present: No
Number of Sampled Component Spectra: 1
Spectrometers: USB2G57348
Integration Time (usec): 100000 (USB2G57348)
Spectra Averaged: 1 (USB2G57348)
Boxcar Smoothing: 0 (USB2G57348)
Correct for Electrical Dark: No (USB2G57348)
Strobe/Lamp Enabled: No (USB2G57348)
Correct for Detector Non-linearity: No (USB2G57348)
Correct for Stray Light: No (USB2G57348)
Number of Pixels in Processed Spectrum: 651
>>>>>Begin Processed Spectral Data<<<<<
350,00	136,08
351,00	132,18
352,00	134,38
353,00	135,03
354,00	135,49
355,00	133,47
356,00	133,86
357,00	134,64
358,00	135,83
359,00	133,96
360,00	132,34
361,00	134,77
362,00	135,64
363,00	137,87
364,00	219,87
365,00	291,34
366,00	166,50
367,00	140,19
368,00	133,26
369,00	138,35
370,00	134,97
371,00	136,53
372,00	139,79
373,00	137,44
374,00	138,07
375,00	135,83
376,00	139,57
377,00	136,55
378,00	135,01
379,00	138,68
380,00	140,18
381,00	139,83
382,00	138,47
383,00	140,74
384,00	138,99
385,00	145,80
386,00	143,32
387,00	139,01
388,00	144,14
389,00	141,31
390,00	141,80
391,00	140,34
392,00	144,49
393,00	142,90
394,00	141,60
395,00	141,40
396,00	142,22
397,00	143,17
398,00	142,17
399,00	143,78
400,00	144,13
401,00	147,70
402,00	145,04
403,00	149,46
404,00	402,09
405,00	309,72
406,00	154,14
407,00	158,82
408,00	157,18
409,00	143,88
410,00	144,39
411,00	143,99
412,00	142,06
413,00	144,03
414,00	141,97
415,00	141,80
416,00	141,28
417,00	141,88
418,00	140,93
419,00	141,32
420,00	142,44
421,00	142,60
422,00	143,86
423,00	143,52
424,00	140,66
425,00	144,02
426,00	144,06
427,00	144,90
428,00	141,97
429,00	141,44
430,00	147,00
431,00	147,51
432,00	143,77
433,00	144,14
434,00	164,95
435,00	811,56
436,00	907,35
437,00	178,10
438,00	149,83
439,00	146,38
440,00	144,05
441,00	144,76
442,00	142,52
443,00	143,04
444,00	139,75
445,00	142,61
446,00	141,90
447,00	140,51
448,00	142,09
449,00	139,71
450,00	142,01
451,00	140,28
452,00	140,27
453,00	140,97
454,00	138,69
455,00	141,58
456,00	138,87
457,00	141,04
458,00	138,37
459,00	139,53
460,00	139,52
461,00	141,20
462,00	140,77
463,00	143,51
464,00	140,99
465,00	139,82
466,00	137,05
467,00	137,12
468,00	140,19
469,00	141,44
470,00	141,86
471,00	138,81
472,00	137,57
473,00	138,48
474,00	139,64
475,00	138,85
476,00	142,72
477,00	138,06
478,00	140,62
479,00	139,88
480,00	142,41
481,00	139,72
482,00	139,93
483,00	136,52
484,00	137,95
485,00	140,38
486,00	135,01
487,00	140,09
488,00	140,06
489,00	138,34
490,00	137,99
491,00	142,94
492,00	142,47
493,00	141,59
494,00	140,09
495,00	140,07
496,00	139,67
497,00	139,12
498,00	136,93
499,00	141,75
500,00	140,29
501,00	138,84
502,00	137,97
503,00	138,76
504,00	141,36
505,00	140,09
506,00	138,96
507,00	141,43
508,00	138,28
509,00	136,71
510,00	139,00
511,00	139,03
512,00	140,60
513,00	137,59
514,00	138,17
515,00	139,07
516,00	136,37
517,00	139,28
518,00	136,90
519,00	138,98
520,00	139,36
521,00	139,09
522,00	142,55
523,00	136,01
524,00	139,00
525,00	136,56
526,00	136,37
527,00	140,95
528,00	137,90
529,00	139,66
530,00	142,73
531,00	139,14
532,00	141,29
533,00	139,85
534,00	138,93
535,00	138,53
536,00	142,16
537,00	144,67
538,00	142,66
539,00	143,93
540,00	147,36
541,00	147,97
542,00	151,62
543,00	162,14
544,00	169,76
545,00	2373,68
546,00	4102,92
547,00	2636,14
548,00	346,73
549,00	193,41
550,00	162,35
551,00	153,29
552,00	148,65
553,00	148,39
554,00	145,76
555,00	145,70
556,00	145,19
557,00	141,32
558,00	142,61
559,00	143,28
560,00	138,76
561,00	140,12
562,00	140,20
563,00	137,19
564,00	138,82
565,00	136,62
566,00	140,03
567,00	140,58
568,00	140,51
569,00	137,24
570,00	140,85
571,00	139,23
572,00	140,17
573,00	140,10
574,00	143,87
575,00	149,24
576,00	390,19
577,00	651,90
578,00	678,15
579,00	872,99
580,00	444,70
581,00	178,79
582,00	149,59
583,00	141,26
584,00	143,08
585,00	144,36
586,00	141,02
587,00	136,79
588,00	139,31
589,00	141,07
590,00	138,25
591,00	138,01
592,00	136,04
593,00	137,18
594,00	133,79
595,00	137,02
596,00	138,79
597,00	135,34
598,00	138,70
599,00	136,30
600,00	137,35
601,00	136,89
602,00	135,98
603,00	131,25
604,00	136,01
605,00	137,86
606,00	133,17
607,00	136,00
608,00	133,98
609,00	138,48
610,00	135,20
611,00	133,29
612,00	135,79
613,00	135,04
614,00	134,32
615,00	135,06
616,00	133,99
617,00	134,82
618,00	136,53
619,00	131,26
620,00	133,15
621,00	133,85
622,00	133,16
623,00	135,06
624,00	139,18
625,00	135,92
626,00	132,63
627,00	134,74
628,00	136,65
629,00	136,95
630,00	134,12
631,00	135,00
632,00	137,70
633,00	136,81
634,00	131,75
635,00	137,36
636,00	136,67
637,00	134,24
638,00	133,53
639,00	134,99
640,00	135,93
641,00	132,96
642,00	132,97
643,00	138,26
644,00	131,93
645,00	134,19
646,00	133,55
647,00	132,07
648,00	137,56
649,00	133,99
650,00	135,91
651,00	132,83
652,00	134,34
653,00	135,60
654,00	132,72
655,00	136,62
656,00	133,26
657,00	135,35
658,00	135,01
659,00	132,88
660,00	137,00
661,00	135,96
662,00	135,44
663,00	134,46
664,00	135,33
665,00	137,01
666,00	133,55
667,00	135,64
668,00	132,71
669,00	135,26
670,00	132,09
671,00	133,49
672,00	136,00
673,00	133,19
674,00	134,04
675,00	135,49
676,00	134,77
677,00	137,02
678,00	136,65
679,00	133,43
680,00	134,29
681,00	132,44
682,00	133,23
683,00	136,87
684,00	135,93
685,00	135,55
686,00	133,98
687,00	136,89
688,00	136,01
689,00	134,99
690,00	134,07
691,00	137,95
692,00	136,68
693,00	134,43
694,00	134,83
695,00	135,73
696,00	139,66
697,00	140,07
698,00	135,23
699,00	134,71
700,00	132,37
701,00	132,95
702,00	136,45
703,00	132,44
704,00	133,66
705,00	133,06
706,00	133,22
707,00	134,14
708,00	133,30
709,00	134,93
710,00	134,38
711,00	136,10
712,00	132,07
713,00	134,68
714,00	131,29
715,00	134,99
716,00	136,85
717,00	135,90
718,00	133,92
719,00	135,00
720,00	132,99
721,00	132,97
722,00	132,98
723,00	133,96
724,00	134,94
725,00	133,94
726,00	132,98
727,00	135,05
728,00	130,96
729,00	133,90
730,00	134,06
731,00	135,10
732,00	133,14
733,00	134,05
734,00	134,91
735,00	132,98
736,00	135,99
737,00	155,97
738,00	135,00
739,00	136,00
740,00	131,88
741,00	133,95
742,00	134,98
743,00	136,96
744,00	133,98
745,00	134,08
746,00	132,42
747,00	132,48
748,00	137,41
749,00	135,94
750,00	135,59
751,00	141,45
752,00	132,37
753,00	133,72
754,00	134,27
755,00	135,06
756,00	133,59
757,00	135,50
758,00	131,12
759,00	136,98
760,00	132,93
761,00	134,08
762,00	139,99
763,00	144,42
764,00	145,91
765,00	140,16
766,00	135,79
767,00	135,18
768,00	136,00
769,00	134,98
770,00	136,09
771,00	134,52
772,00	139,11
773,00	136,61
774,00	134,78
775,00	135,49
776,00	135,47
777,00	136,76
778,00	137,11
779,00	134,38
780,00	135,28
781,00	133,33
782,00	132,17
783,00	137,11
784,00	135,09
785,00	134,10
786,00	135,05
787,00	132,78
788,00	134,22
789,00	135,96
790,00	131,09
791,00	133,51
792,00	134,11
793,00	133,87
794,00	137,20
795,00	138,00
796,00	137,22
797,00	135,63
798,00	133,83
799,00	136,24
800,00	134,01
801,00	134,84
802,00	134,15
803,00	134,26
804,00	133,86
805,00	129,92
806,00	131,76
807,00	135,88
808,00	133,08
809,00	133,38
810,00	134,82
811,00	139,46
812,00	139,85
813,00	135,06
814,00	133,00
815,00	133,78
816,00	135,32
817,00	135,08
818,00	133,45
819,00	133,26
820,00	135,56
821,00	133,96
822,00	130,92
823,00	133,05
824,00	135,82
825,00	132,84
826,00	137,72
827,00	136,47
828,00	133,09
829,00	134,95
830,00	134,01
831,00	132,69
832,00	132,76
833,00	135,41
834,00	134,32
835,00	133,12
836,00	132,68
837,00	132,16
838,00	133,84
839,00	135,37
840,00	131,54
841,00	137,04
842,00	135,97
843,00	135,32
844,00	135,17
845,00	131,35
846,00	134,08
847,00	132,04
848,00	132,46
849,00	134,51
850,00	133,93
851,00	132,22
852,00	132,00
853,00	134,77
854,00	135,39
855,00	132,94
856,00	133,29
857,00	131,92
858,00	133,42
859,00	133,30
860,00	133,74
861,00	134,51
862,00	131,66
863,00	133,02
864,00	133,72
865,00	133,30
866,00	131,39
867,00	131,01
868,00	132,64
869,00	132,92
870,00	133,34
871,00	137,19
872,00	132,28
873,00	133,95
874,00	131,99
875,00	132,70
876,00	132,98
877,00	135,76
878,00	133,42
879,00	132,84
880,00	132,94
881,00	134,93
882,00	135,08
883,00	130,81
884,00	132,14
885,00	133,82
886,00	129,88
887,00	134,61
888,00	133,88
889,00	131,80
890,00	132,97
891,00	131,41
892,00	131,04
893,00	134,76
894,00	132,36
895,00	133,68
896,00	134,01
897,00	134,05
898,00	130,68
899,00	140,20
900,00	133,01
901,00	135,12
902,00	133,94
903,00	132,11
904,00	134,14
905,00	134,24
906,00	135,54
907,00	136,03
908,00	130,65
909,00	132,75
910,00	134,07
911,00	138,10
912,00	132,72
913,00	135,92
914,00	133,86
915,00	132,74
916,00	135,23
917,00	132,00
918,00	132,65
919,00	132,66
920,00	131,86
921,00	134,24
922,00	135,05
923,00	133,75
924,00	132,15
925,00	133,50
926,00	131,89
927,00	134,15
928,00	129,11
929,00	130,05
930,00	134,61
931,00	132,26
932,00	130,74
933,00	133,32
934,00	132,96
935,00	136,64
936,00	132,15
937,00	137,17
938,00	133,91
939,00	136,20
940,00	134,28
941,00	136,01
942,00	134,73
943,00	132,30
944,00	133,99
945,00	133,43
946,00	136,48
947,00	132,40
948,00	133,45
949,00	132,03
950,00	134,10
951,00	134,49
952,00	133,06
953,00	134,18
954,00	133,21
955,00	134,41
956,00	134,71
957,00	133,00
958,00	133,28
959,00	132,71
960,00	136,38
961,00	132,17
962,00	130,00
963,00	131,30
964,00	133,99
965,00	133,45
966,00	133,18
967,00	133,99
968,00	135,16
969,00	132,97
970,00	131,86
971,00	134,40
972,00	133,77
973,00	131,50
974,00	132,06
975,00	134,43
976,00	133,37
977,00	129,31
978,00	131,52
979,00	134,08
980,00	136,13
981,00	134,79
982,00	132,09
983,00	134,96
984,00	134,09
985,00	132,06
986,00	131,27
987,00	132,86
988,00	135,79
989,00	133,41
990,00	133,03
991,00	134,18
992,00	131,75
993,00	134,84
994,00	133,48
995,00	133,46
996,00	130,94
997,00	132,13
998,00	131,92
999,00	134,33
1000,00	133,86
>>>>>End Processed Spectral Data<<<<<
