SpectraSuite Data File
++++++++++++++++++++++++++++++++++++
Date: Wed Feb 14 13:37:22 GMT-05:00 2024
User: ULAVAL
Dark Spectrum Present: No
Reference Spectrum Present: No
Number of Sampled Component Spectra: 1
Spectrometers: USB2G57348
Integration Time (usec): 100000 (USB2G57348)
Spectra Averaged: 1 (USB2G57348)
Boxcar Smoothing: 0 (USB2G57348)
Correct for Electrical Dark: No (USB2G57348)
Strobe/Lamp Enabled: No (USB2G57348)
Correct for Detector Non-linearity: No (USB2G57348)
Correct for Stray Light: No (USB2G57348)
Number of Pixels in Processed Spectrum: 651
>>>>>Begin Processed Spectral Data<<<<<
350,00	136,11
351,00	131,76
352,00	129,78
353,00	134,01
354,00	133,85
355,00	135,26
356,00	132,24
357,00	132,29
358,00	132,24
359,00	133,05
360,00	130,52
361,00	133,14
362,00	129,88
363,00	136,05
364,00	132,02
365,00	128,89
366,00	131,04
367,00	133,04
368,00	132,20
369,00	134,20
370,00	132,15
371,00	133,65
372,00	132,73
373,00	132,55
374,00	132,72
375,00	129,88
376,00	133,40
377,00	131,93
378,00	130,23
379,00	132,95
380,00	130,88
381,00	131,92
382,00	131,29
383,00	136,57
384,00	137,00
385,00	139,94
386,00	134,76
387,00	136,96
388,00	129,58
389,00	133,04
390,00	133,15
391,00	135,95
392,00	134,43
393,00	131,16
394,00	136,25
395,00	133,47
396,00	134,05
397,00	131,53
398,00	134,01
399,00	130,97
400,00	135,28
401,00	134,18
402,00	136,95
403,00	135,71
404,00	134,52
405,00	135,06
406,00	134,96
407,00	133,57
408,00	131,94
409,00	134,64
410,00	133,91
411,00	128,96
412,00	137,13
413,00	135,73
414,00	134,09
415,00	133,22
416,00	132,86
417,00	135,88
418,00	136,60
419,00	133,61
420,00	136,11
421,00	136,18
422,00	136,85
423,00	134,21
424,00	135,29
425,00	132,65
426,00	134,12
427,00	133,07
428,00	133,07
429,00	134,09
430,00	134,99
431,00	135,17
432,00	137,07
433,00	135,87
434,00	136,17
435,00	137,31
436,00	134,32
437,00	134,92
438,00	135,77
439,00	136,67
440,00	138,01
441,00	132,89
442,00	134,68
443,00	136,07
444,00	132,67
445,00	131,96
446,00	131,33
447,00	134,04
448,00	137,35
449,00	135,42
450,00	134,98
451,00	136,48
452,00	133,09
453,00	134,44
454,00	134,70
455,00	132,70
456,00	136,58
457,00	133,99
458,00	136,46
459,00	135,55
460,00	133,40
461,00	134,70
462,00	133,41
463,00	133,30
464,00	130,00
465,00	134,79
466,00	129,90
467,00	134,37
468,00	135,82
469,00	135,76
470,00	130,84
471,00	132,01
472,00	136,01
473,00	135,40
474,00	135,64
475,00	134,14
476,00	132,59
477,00	133,92
478,00	134,10
479,00	131,21
480,00	134,80
481,00	134,35
482,00	132,76
483,00	133,04
484,00	132,29
485,00	132,62
486,00	132,05
487,00	131,49
488,00	134,58
489,00	137,17
490,00	133,00
491,00	132,23
492,00	132,78
493,00	135,70
494,00	131,97
495,00	132,07
496,00	135,07
497,00	134,28
498,00	135,02
499,00	132,32
500,00	135,74
501,00	133,70
502,00	133,97
503,00	133,23
504,00	132,38
505,00	133,65
506,00	134,01
507,00	138,75
508,00	135,57
509,00	133,32
510,00	133,00
511,00	136,23
512,00	135,56
513,00	136,56
514,00	131,03
515,00	135,88
516,00	134,45
517,00	132,38
518,00	133,57
519,00	133,73
520,00	133,71
521,00	134,28
522,00	131,33
523,00	133,98
524,00	134,40
525,00	131,37
526,00	135,87
527,00	135,97
528,00	134,90
529,00	135,43
530,00	133,27
531,00	134,16
532,00	132,81
533,00	135,16
534,00	132,88
535,00	136,31
536,00	135,08
537,00	133,94
538,00	134,97
539,00	134,77
540,00	133,69
541,00	134,99
542,00	134,23
543,00	131,72
544,00	132,94
545,00	131,66
546,00	135,87
547,00	133,71
548,00	132,22
549,00	136,02
550,00	133,95
551,00	132,99
552,00	135,42
553,00	132,37
554,00	133,61
555,00	134,90
556,00	136,15
557,00	135,18
558,00	131,72
559,00	133,41
560,00	134,99
561,00	136,91
562,00	132,28
563,00	137,74
564,00	136,70
565,00	136,07
566,00	134,01
567,00	137,35
568,00	149,29
569,00	145,30
570,00	135,27
571,00	133,97
572,00	130,99
573,00	134,28
574,00	138,41
575,00	140,24
576,00	133,36
577,00	136,01
578,00	134,97
579,00	133,91
580,00	137,13
581,00	141,16
582,00	137,08
583,00	137,01
584,00	141,30
585,00	144,76
586,00	146,19
587,00	139,32
588,00	2583,87
589,00	3954,59
590,00	1891,42
591,00	377,44
592,00	171,64
593,00	147,49
594,00	143,54
595,00	139,97
596,00	139,77
597,00	139,45
598,00	136,56
599,00	137,30
600,00	138,44
601,00	136,97
602,00	132,04
603,00	134,75
604,00	140,24
605,00	133,53
606,00	138,25
607,00	136,32
608,00	135,01
609,00	132,69
610,00	136,25
611,00	132,16
612,00	134,98
613,00	134,99
614,00	133,43
615,00	135,02
616,00	139,11
617,00	135,88
618,00	134,93
619,00	136,81
620,00	133,17
621,00	131,86
622,00	132,10
623,00	130,03
624,00	135,67
625,00	135,60
626,00	130,73
627,00	133,72
628,00	135,43
629,00	130,12
630,00	129,11
631,00	133,02
632,00	130,02
633,00	134,64
634,00	133,22
635,00	133,37
636,00	134,12
637,00	136,90
638,00	135,10
639,00	134,94
640,00	133,15
641,00	134,97
642,00	132,24
643,00	129,93
644,00	133,64
645,00	131,59
646,00	133,13
647,00	134,08
648,00	132,61
649,00	128,99
650,00	133,05
651,00	132,07
652,00	132,85
653,00	134,18
654,00	132,15
655,00	134,48
656,00	135,39
657,00	131,66
658,00	132,04
659,00	132,86
660,00	134,00
661,00	132,12
662,00	132,81
663,00	132,37
664,00	132,84
665,00	135,44
666,00	132,77
667,00	131,21
668,00	132,18
669,00	132,97
670,00	131,13
671,00	133,03
672,00	132,09
673,00	128,02
674,00	133,09
675,00	132,09
676,00	132,92
677,00	137,03
678,00	130,71
679,00	136,42
680,00	133,80
681,00	135,77
682,00	133,43
683,00	133,11
684,00	132,90
685,00	133,11
686,00	132,30
687,00	133,75
688,00	137,87
689,00	129,96
690,00	133,87
691,00	131,84
692,00	131,85
693,00	132,34
694,00	130,20
695,00	135,99
696,00	142,99
697,00	137,89
698,00	135,86
699,00	131,03
700,00	132,84
701,00	131,29
702,00	130,84
703,00	133,40
704,00	133,88
705,00	134,25
706,00	137,09
707,00	136,40
708,00	134,43
709,00	131,58
710,00	131,47
711,00	132,66
712,00	129,96
713,00	132,83
714,00	127,68
715,00	132,08
716,00	132,10
717,00	132,80
718,00	132,15
719,00	136,05
720,00	134,01
721,00	134,02
722,00	130,02
723,00	133,02
724,00	130,01
725,00	131,99
726,00	136,09
727,00	134,98
728,00	134,78
729,00	133,95
730,00	131,95
731,00	132,81
732,00	133,06
733,00	132,85
734,00	134,95
735,00	134,99
736,00	129,95
737,00	160,96
738,00	143,99
739,00	135,98
740,00	136,96
741,00	135,95
742,00	134,14
743,00	133,94
744,00	131,08
745,00	133,28
746,00	133,12
747,00	131,79
748,00	135,27
749,00	136,57
750,00	144,32
751,00	144,91
752,00	139,75
753,00	135,72
754,00	134,85
755,00	130,10
756,00	131,11
757,00	132,24
758,00	135,15
759,00	133,73
760,00	133,39
761,00	132,18
762,00	153,14
763,00	173,53
764,00	150,58
765,00	151,44
766,00	159,53
767,00	144,21
768,00	137,00
769,00	144,97
770,00	141,47
771,00	148,19
772,00	146,21
773,00	140,68
774,00	136,60
775,00	136,47
776,00	134,38
777,00	132,03
778,00	132,90
779,00	134,06
780,00	134,55
781,00	132,72
782,00	134,34
783,00	134,10
784,00	132,92
785,00	133,70
786,00	130,81
787,00	135,82
788,00	131,75
789,00	132,57
790,00	135,11
791,00	132,69
792,00	133,17
793,00	133,16
794,00	140,79
795,00	136,00
796,00	135,77
797,00	132,97
798,00	131,06
799,00	136,50
800,00	141,83
801,00	146,45
802,00	139,61
803,00	133,63
804,00	134,93
805,00	134,05
806,00	133,87
807,00	132,99
808,00	135,21
809,00	140,08
810,00	160,55
811,00	175,84
812,00	154,99
813,00	142,20
814,00	132,78
815,00	131,20
816,00	132,77
817,00	152,87
818,00	189,23
819,00	204,68
820,00	162,95
821,00	146,04
822,00	133,91
823,00	135,94
824,00	134,47
825,00	136,68
826,00	138,51
827,00	136,04
828,00	138,05
829,00	132,07
830,00	129,56
831,00	132,53
832,00	133,47
833,00	132,97
834,00	133,70
835,00	130,17
836,00	134,62
837,00	130,24
838,00	133,83
839,00	135,36
840,00	137,07
841,00	145,07
842,00	145,52
843,00	138,92
844,00	137,40
845,00	135,60
846,00	134,08
847,00	131,77
848,00	130,52
849,00	133,90
850,00	131,54
851,00	135,56
852,00	137,08
853,00	133,54
854,00	133,19
855,00	136,32
856,00	132,01
857,00	132,03
858,00	134,23
859,00	132,96
860,00	133,58
861,00	133,16
862,00	135,11
863,00	132,03
864,00	133,32
865,00	132,81
866,00	134,47
867,00	134,02
868,00	131,84
869,00	135,03
870,00	134,22
871,00	136,12
872,00	134,18
873,00	134,90
874,00	135,80
875,00	132,85
876,00	133,95
877,00	130,20
878,00	130,82
879,00	127,72
880,00	133,07
881,00	131,91
882,00	129,53
883,00	133,48
884,00	134,62
885,00	133,93
886,00	133,46
887,00	132,42
888,00	131,93
889,00	130,23
890,00	132,92
891,00	133,65
892,00	135,82
893,00	138,89
894,00	133,15
895,00	135,84
896,00	138,03
897,00	132,77
898,00	132,85
899,00	138,61
900,00	133,04
901,00	128,07
902,00	134,24
903,00	133,06
904,00	132,99
905,00	132,60
906,00	133,68
907,00	132,00
908,00	135,42
909,00	133,38
910,00	134,21
911,00	141,06
912,00	145,92
913,00	136,92
914,00	136,81
915,00	132,47
916,00	136,01
917,00	133,98
918,00	129,76
919,00	136,72
920,00	132,06
921,00	134,30
922,00	133,79
923,00	133,11
924,00	134,32
925,00	131,79
926,00	133,01
927,00	131,56
928,00	132,03
929,00	134,13
930,00	132,93
931,00	133,94
932,00	133,68
933,00	133,84
934,00	132,54
935,00	130,97
936,00	132,04
937,00	130,20
938,00	134,13
939,00	133,95
940,00	137,67
941,00	132,00
942,00	134,87
943,00	132,84
944,00	131,01
945,00	134,05
946,00	133,94
947,00	131,40
948,00	129,91
949,00	133,17
950,00	132,08
951,00	132,05
952,00	132,12
953,00	132,95
954,00	132,27
955,00	134,95
956,00	131,81
957,00	133,99
958,00	129,22
959,00	131,30
960,00	130,88
961,00	136,42
962,00	134,01
963,00	131,22
964,00	130,79
965,00	132,75
966,00	133,63
967,00	131,01
968,00	133,36
969,00	132,93
970,00	133,00
971,00	132,47
972,00	130,36
973,00	131,69
974,00	128,97
975,00	133,55
976,00	132,00
977,00	133,46
978,00	134,32
979,00	129,41
980,00	135,29
981,00	130,15
982,00	133,60
983,00	133,00
984,00	130,78
985,00	136,09
986,00	131,43
987,00	133,07
988,00	132,40
989,00	137,15
990,00	133,98
991,00	133,34
992,00	130,11
993,00	130,47
994,00	131,04
995,00	132,90
996,00	135,04
997,00	131,93
998,00	136,10
999,00	133,95
1000,00	133,02
>>>>>End Processed Spectral Data<<<<<
