SpectraSuite Data File
++++++++++++++++++++++++++++++++++++
Date: Wed Feb 14 13:32:49 GMT-05:00 2024
User: ULAVAL
Dark Spectrum Present: No
Reference Spectrum Present: No
Number of Sampled Component Spectra: 1
Spectrometers: USB2G57348
Integration Time (usec): 100000 (USB2G57348)
Spectra Averaged: 1 (USB2G57348)
Boxcar Smoothing: 0 (USB2G57348)
Correct for Electrical Dark: No (USB2G57348)
Strobe/Lamp Enabled: No (USB2G57348)
Correct for Detector Non-linearity: No (USB2G57348)
Correct for Stray Light: No (USB2G57348)
Number of Pixels in Processed Spectrum: 651
>>>>>Begin Processed Spectral Data<<<<<
350,00	146,12
351,00	141,11
352,00	145,48
353,00	142,01
354,00	145,13
355,00	144,18
356,00	141,16
357,00	143,10
358,00	143,78
359,00	150,18
360,00	146,01
361,00	147,12
362,00	144,76
363,00	151,89
364,00	148,09
365,00	150,28
366,00	154,02
367,00	151,01
368,00	153,67
369,00	151,85
370,00	158,15
371,00	158,18
372,00	156,18
373,00	155,36
374,00	152,83
375,00	153,47
376,00	160,14
377,00	161,42
378,00	160,19
379,00	164,59
380,00	163,36
381,00	165,78
382,00	175,42
383,00	171,66
384,00	173,00
385,00	176,72
386,00	179,36
387,00	182,94
388,00	183,23
389,00	187,22
390,00	191,92
391,00	190,67
392,00	190,56
393,00	197,75
394,00	197,27
395,00	200,59
396,00	206,87
397,00	211,67
398,00	210,04
399,00	210,88
400,00	220,24
401,00	221,95
402,00	225,63
403,00	227,98
404,00	233,21
405,00	237,88
406,00	239,61
407,00	242,25
408,00	241,11
409,00	249,05
410,00	257,64
411,00	252,03
412,00	266,64
413,00	270,75
414,00	267,02
415,00	278,34
416,00	284,52
417,00	288,14
418,00	293,02
419,00	304,80
420,00	311,22
421,00	312,94
422,00	325,87
423,00	327,64
424,00	325,06
425,00	335,59
426,00	332,89
427,00	344,86
428,00	354,54
429,00	355,72
430,00	365,09
431,00	370,93
432,00	376,22
433,00	375,95
434,00	387,59
435,00	393,77
436,00	399,98
437,00	407,04
438,00	423,16
439,00	425,68
440,00	427,94
441,00	448,28
442,00	450,06
443,00	461,82
444,00	465,12
445,00	474,60
446,00	493,58
447,00	488,38
448,00	484,11
449,00	478,76
450,00	504,03
451,00	513,13
452,00	510,55
453,00	530,53
454,00	530,63
455,00	552,31
456,00	560,21
457,00	573,82
458,00	581,56
459,00	584,64
460,00	612,93
461,00	627,41
462,00	632,63
463,00	662,61
464,00	674,00
465,00	699,32
466,00	703,88
467,00	746,68
468,00	761,51
469,00	809,30
470,00	833,66
471,00	858,30
472,00	884,13
473,00	901,58
474,00	924,81
475,00	960,42
476,00	981,88
477,00	1029,87
478,00	1076,72
479,00	1119,70
480,00	1153,32
481,00	1190,03
482,00	1244,25
483,00	1311,11
484,00	1354,40
485,00	1430,94
486,00	1465,59
487,00	1506,32
488,00	1558,84
489,00	1612,74
490,00	1628,93
491,00	1687,22
492,00	1734,23
493,00	1789,14
494,00	1858,39
495,00	1879,86
496,00	1926,78
497,00	1959,82
498,00	1982,44
499,00	2054,83
500,00	2071,88
501,00	2084,43
502,00	2145,00
503,00	2181,05
504,00	2243,35
505,00	2291,84
506,00	2291,85
507,00	2314,45
508,00	2371,48
509,00	2388,15
510,00	2421,00
511,00	2462,97
512,00	2496,52
513,00	2502,82
514,00	2545,59
515,00	2586,78
516,00	2595,12
517,00	2637,96
518,00	2669,78
519,00	2664,97
520,00	2721,43
521,00	2756,21
522,00	2786,86
523,00	2831,12
524,00	2822,30
525,00	2847,86
526,00	2872,72
527,00	2933,88
528,00	2937,61
529,00	2935,77
530,00	2981,00
531,00	2999,59
532,00	3017,07
533,00	3069,57
534,00	3057,84
535,00	3095,28
536,00	3118,28
537,00	3159,15
538,00	3190,89
539,00	3237,15
540,00	3249,05
541,00	3253,87
542,00	3310,26
543,00	3316,00
544,00	3341,04
545,00	3354,23
546,00	3378,62
547,00	3394,15
548,00	3427,70
549,00	3448,79
550,00	3484,94
551,00	3466,35
552,00	3482,66
553,00	3500,02
554,00	3521,73
555,00	3512,14
556,00	3548,58
557,00	3556,48
558,00	3572,42
559,00	3576,06
560,00	3589,07
561,00	3624,54
562,00	3601,13
563,00	3628,01
564,00	3618,71
565,00	3634,93
566,00	3665,94
567,00	3670,11
568,00	3655,06
569,00	3656,96
570,00	3683,40
571,00	3698,91
572,00	3721,38
573,00	3636,38
574,00	3620,05
575,00	3533,12
576,00	3731,46
577,00	3723,19
578,00	3727,93
579,00	3715,57
580,00	3707,57
581,00	3711,53
582,00	3695,06
583,00	3702,70
584,00	3710,42
585,00	3713,36
586,00	3717,49
587,00	3713,29
588,00	3705,17
589,00	3698,05
590,00	3714,26
591,00	3711,06
592,00	3733,56
593,00	3714,88
594,00	3726,40
595,00	3725,72
596,00	3737,67
597,00	3749,51
598,00	3776,31
599,00	3766,06
600,00	3701,93
601,00	3700,97
602,00	3680,37
603,00	3790,59
604,00	3778,30
605,00	3758,76
606,00	3773,79
607,00	3764,67
608,00	3758,11
609,00	3763,00
610,00	3784,32
611,00	3769,96
612,00	3764,31
613,00	3762,77
614,00	3750,24
615,00	3726,75
616,00	3736,91
617,00	3745,65
618,00	3760,02
619,00	3760,57
620,00	3749,71
621,00	3756,67
622,00	3731,08
623,00	3739,28
624,00	3747,41
625,00	3721,97
626,00	3723,74
627,00	3717,29
628,00	3721,26
629,00	3718,23
630,00	3703,93
631,00	3714,43
632,00	3690,80
633,00	3693,19
634,00	3682,55
635,00	3692,16
636,00	3685,11
637,00	3663,81
638,00	3675,40
639,00	3654,11
640,00	3643,01
641,00	3614,74
642,00	3626,47
643,00	3618,83
644,00	3631,26
645,00	3636,55
646,00	3623,18
647,00	3604,42
648,00	3580,82
649,00	3589,99
650,00	3594,64
651,00	3576,27
652,00	3584,07
653,00	3561,04
654,00	3537,34
655,00	3548,92
656,00	3520,31
657,00	3520,03
658,00	3527,69
659,00	3512,06
660,00	3518,91
661,00	3514,60
662,00	3503,22
663,00	3497,62
664,00	3493,04
665,00	3472,80
666,00	3472,38
667,00	3437,65
668,00	3435,92
669,00	3432,37
670,00	3415,89
671,00	3421,23
672,00	3389,21
673,00	3348,26
674,00	3334,60
675,00	3319,24
676,00	3332,78
677,00	3369,83
678,00	3370,72
679,00	3365,72
680,00	3349,88
681,00	3319,28
682,00	3348,50
683,00	3343,51
684,00	3301,72
685,00	3307,18
686,00	3307,77
687,00	3265,58
688,00	3247,75
689,00	3239,97
690,00	3250,40
691,00	3223,91
692,00	3201,89
693,00	3210,26
694,00	3180,31
695,00	3166,36
696,00	3162,50
697,00	3153,38
698,00	3141,69
699,00	3113,44
700,00	3117,68
701,00	3102,78
702,00	3093,29
703,00	3068,78
704,00	3051,25
705,00	3036,32
706,00	3027,11
707,00	3045,85
708,00	3052,17
709,00	3034,04
710,00	3039,09
711,00	3046,08
712,00	3027,76
713,00	3002,13
714,00	2973,49
715,00	2970,95
716,00	2965,48
717,00	2956,24
718,00	2935,95
719,00	2946,06
720,00	2963,89
721,00	2944,20
722,00	2910,14
723,00	2902,20
724,00	2878,68
725,00	2878,23
726,00	2870,91
727,00	2836,80
728,00	2864,14
729,00	2833,40
730,00	2835,19
731,00	2816,23
732,00	2807,79
733,00	2818,55
734,00	2780,39
735,00	2775,59
736,00	2754,21
737,00	2791,13
738,00	2732,92
739,00	2724,17
740,00	2699,83
741,00	2681,90
742,00	2695,75
743,00	2647,76
744,00	2645,25
745,00	2636,81
746,00	2642,60
747,00	2617,50
748,00	2599,16
749,00	2582,55
750,00	2579,92
751,00	2564,92
752,00	2524,95
753,00	2508,92
754,00	2491,47
755,00	2480,91
756,00	2459,27
757,00	2428,64
758,00	2432,83
759,00	2408,77
760,00	2401,94
761,00	2363,40
762,00	2322,17
763,00	2320,75
764,00	2317,97
765,00	2294,81
766,00	2297,28
767,00	2260,62
768,00	2235,01
769,00	2210,70
770,00	2193,87
771,00	2176,66
772,00	2185,08
773,00	2157,26
774,00	2119,69
775,00	2099,99
776,00	2108,23
777,00	2072,37
778,00	2029,68
779,00	2019,54
780,00	1996,38
781,00	2000,49
782,00	1960,92
783,00	1959,87
784,00	1938,60
785,00	1943,08
786,00	1906,27
787,00	1892,33
788,00	1888,89
789,00	1859,62
790,00	1843,34
791,00	1837,85
792,00	1826,52
793,00	1798,46
794,00	1781,70
795,00	1790,98
796,00	1804,49
797,00	1808,15
798,00	1811,93
799,00	1809,87
800,00	1803,79
801,00	1800,27
802,00	1803,08
803,00	1781,13
804,00	1767,14
805,00	1774,02
806,00	1749,67
807,00	1738,10
808,00	1722,11
809,00	1724,27
810,00	1688,96
811,00	1672,30
812,00	1662,87
813,00	1649,79
814,00	1634,80
815,00	1634,03
816,00	1596,08
817,00	1580,88
818,00	1554,28
819,00	1549,66
820,00	1501,54
821,00	1517,24
822,00	1471,19
823,00	1477,39
824,00	1466,19
825,00	1434,97
826,00	1432,40
827,00	1404,57
828,00	1414,42
829,00	1366,13
830,00	1361,54
831,00	1354,51
832,00	1327,75
833,00	1303,14
834,00	1320,56
835,00	1296,74
836,00	1295,18
837,00	1264,65
838,00	1255,78
839,00	1248,85
840,00	1232,92
841,00	1235,32
842,00	1231,51
843,00	1201,39
844,00	1203,16
845,00	1182,91
846,00	1178,51
847,00	1171,56
848,00	1146,61
849,00	1171,36
850,00	1149,44
851,00	1124,55
852,00	1112,23
853,00	1108,72
854,00	1117,05
855,00	1102,32
856,00	1097,43
857,00	1084,24
858,00	1070,60
859,00	1062,53
860,00	1044,44
861,00	1054,82
862,00	1052,67
863,00	1039,95
864,00	1025,71
865,00	1019,47
866,00	1004,19
867,00	996,34
868,00	984,41
869,00	973,75
870,00	944,50
871,00	946,16
872,00	950,83
873,00	943,10
874,00	938,85
875,00	940,19
876,00	939,06
877,00	938,60
878,00	920,91
879,00	921,12
880,00	937,56
881,00	923,11
882,00	936,03
883,00	931,08
884,00	925,50
885,00	937,00
886,00	960,93
887,00	948,46
888,00	936,03
889,00	952,46
890,00	947,79
891,00	940,40
892,00	931,73
893,00	942,55
894,00	918,08
895,00	932,75
896,00	911,80
897,00	910,49
898,00	905,35
899,00	910,34
900,00	897,60
901,00	895,70
902,00	883,27
903,00	869,92
904,00	863,70
905,00	860,99
906,00	846,05
907,00	830,99
908,00	823,98
909,00	820,46
910,00	807,11
911,00	787,88
912,00	794,83
913,00	778,84
914,00	767,40
915,00	757,30
916,00	741,92
917,00	738,96
918,00	743,02
919,00	721,66
920,00	711,46
921,00	689,93
922,00	685,63
923,00	682,09
924,00	669,98
925,00	662,04
926,00	646,80
927,00	646,99
928,00	631,20
929,00	620,81
930,00	620,90
931,00	605,00
932,00	604,82
933,00	591,75
934,00	582,56
935,00	577,21
936,00	557,15
937,00	558,74
938,00	553,68
939,00	544,21
940,00	532,11
941,00	531,03
942,00	529,85
943,00	516,20
944,00	504,53
945,00	502,96
946,00	496,10
947,00	491,36
948,00	487,23
949,00	473,29
950,00	475,42
951,00	449,84
952,00	457,45
953,00	455,42
954,00	444,46
955,00	437,79
956,00	436,65
957,00	418,90
958,00	429,37
959,00	418,59
960,00	415,78
961,00	406,43
962,00	402,99
963,00	393,65
964,00	392,59
965,00	383,59
966,00	377,01
967,00	382,31
968,00	362,29
969,00	371,96
970,00	362,52
971,00	352,30
972,00	352,85
973,00	353,64
974,00	347,15
975,00	345,50
976,00	333,99
977,00	339,90
978,00	324,70
979,00	326,17
980,00	318,08
981,00	313,57
982,00	308,47
983,00	305,02
984,00	302,33
985,00	298,00
986,00	293,34
987,00	284,76
988,00	284,82
989,00	276,33
990,00	278,14
991,00	280,11
992,00	279,63
993,00	267,95
994,00	258,39
995,00	264,81
996,00	256,70
997,00	251,15
998,00	249,75
999,00	244,48
1000,00	235,97
>>>>>End Processed Spectral Data<<<<<
